MASS=Monoisotopic
BEGIN IONS
TITLE=File: "C:\Users\chem-egg\Desktop\HCD Data\S_targeted NCE15_18.raw"; SpectrumID: "1575"; scans: "1,7,13,19,25,31,37,43,49,55,61,67,73,79,85,91,97,103,109,115,121,127,133,139,145,151,157,163,169,175,181,187,193,199,205,211,217,223,229,235,241,247,253,259,265,271,277,283,289,295,301,307,313,319,325,331,337,343,349,355,361,367,373,379,385,391,397,403,409,415,421,427,433,439,445,451,457,463,469,475,481,487,493,499,505,511,517,523,529,535,541,547,553,559,565,571,577,583,589"
PEPMASS=1796.75769 0.00000
CHARGE=2+
RTINSECONDS=300-480
SCANS=1-589
402.32468 7.72043
407.06021 7.63415
408.01185 267.799
412.04913 7.27994
413.95734 7.96424
416.48743 8.45236
419.05022 219.865
419.41986 8.25973
423.32217 7.30765
424.00700 113.377
424.98856 8.07301
426.02280 58.878
431.56577 7.02617
435.65915 8.08712
436.49609 7.61667
440.18930 12.5732
442.07745 59.577
443.99051 7.52993
447.76526 7.71043
458.07230 27.3414
458.56555 7.6074
462.20471 7.5341
464.34491 7.80507
464.85065 8.12984
470.49872 7.81556
471.42902 8.82006
472.90442 7.59218
473.62631 7.85927
474.08194 8.23905
474.29755 8.11841
474.40985 8.92918
475.14429 7.748
475.20206 7.65199
476.08283 32.9922
481.32449 7.90333
481.45709 7.50788
485.68704 8.45352
489.30441 9.22648
492.16622 20.8871
492.17529 16.0597
492.18262 13.3812
492.18839 161.229
492.20322 300.798
492.21176 196.355
492.22082 302.452
492.22835 141.516
492.23842 286.104
492.24788 339.212
492.25426 109.975
492.26299 93.189
492.27171 119.236
492.27723 63.8694
492.28470 35.9438
492.29540 30.1237
492.30172 32.7091
492.31293 8.97717
494.41135 9.1263
494.43964 8.06407
498.03235 56.6889
499.01699 145.863
501.96945 8.18127
502.42062 8.12534
504.03189 15.8289
515.38037 12.8413
516.08124 7.86048
522.04431 238.923
526.51044 7.86452
530.09380 105.814
531.09674 12.6177
534.65631 8.78254
536.55640 8.48289
538.03862 58.245
546.57373 8.4045
547.48041 8.57711
548.10387 61.1026
548.13611 8.01687
550.35919 9.14212
554.69916 14.0722
555.43030 8.56708
556.04889 71.1429
562.90839 8.58464
570.24982 7.96584
573.59393 8.13914
574.25586 7.92042
602.17657 8.13108
609.12104 49.3422
610.03473 22.456
610.05963 3394.49
610.08337 15.9401
611.06305 628.785
612.06462 93.4301
616.50330 8.15919
618.64288 11.1394
618.70477 7.95733
623.62189 8.39493
625.88531 8.75385
626.14923 15.9385
627.13218 2898.85
628.07116 197.951
628.13529 535.218
628.15155 9.32054
629.13738 57.4848
629.14453 12.8634
633.08713 113.648
634.07122 34.4351
634.83014 8.54791
638.78619 8.73447
640.73572 8.28919
646.27148 8.48668
650.06549 23.3396
651.91669 8.28819
655.08301 33.108
657.09854 188.917
664.15057 8.13813
668.84241 8.25627
671.83191 8.78929
673.09286 478.266
674.09613 20.7169
675.10681 13.1757
677.51953 8.63098
680.91162 11.6996
681.73590 9.14883
689.09061 43.8773
691.10587 32.8454
694.81207 9.74282
697.39069 8.4673
704.30029 8.3139
705.13690 8.59667
706.19220 8.21092
707.09889 865.771
708.10141 116.318
713.05518 15.6162
714.03760 187.641
714.12476 9.04432
716.03674 8.17082
717.35022 9.50514
720.49496 25.8801
720.50549 8.45844
720.52221 23.2116
720.55341 10.676
720.56275 36.1875
720.57717 29.8943
720.59796 8.58019
720.62164 9.66551
722.54816 15.7659
724.05310 8.22798
724.09193 742.143
725.09400 83.8154
730.03176 34.274
735.12372 8.87254
735.55908 8.63181
737.06526 143.993
739.91064 8.58923
744.98035 11.3106
745.84705 8.88893
747.11984 34.9803
752.16418 8.53298
753.05957 191.99
754.06104 14.5835
755.07404 20.5243
765.25397 8.49025
765.55505 9.38163
767.60480 9.23155
771.12912 35.4782
772.07550 12.523
772.13287 14.8696
783.44629 8.70107
787.12575 134.082
788.12598 17.1327
788.88391 8.89722
789.83850 8.65549
793.08203 8.91192
803.62506 17.5908
804.05798 15.7318
805.13558 50.2467
806.10516 16.983
818.98621 9.60113
822.41003 8.49931
828.06892 139.439
843.60895 16.0184
844.06580 13.986
848.10107 9.11093
851.09558 95.0688
860.15051 8.96963
860.88165 9.69379
867.09060 153.379
868.68665 10.2176
869.09528 14.5612
877.15833 21.0961
883.23804 10.3916
884.58160 9.3261
899.06995 9.03267
902.07599 8.90692
908.03802 16.7655
910.20386 14.0185
915.76868 8.98135
927.02539 8.94954
932.11206 18.7896
932.61163 15.2537
938.17273 15.8349
939.11309 2773.89
939.15869 17.4423
940.07269 12.621
940.11483 937.305
941.11830 189.078
941.19458 9.33272
944.22375 9.8223
949.49335 9.38446
954.15137 9.36017
956.18499 2070.57
956.55707 9.07472
957.12277 178.672
957.18807 798.785
958.12732 21.3034
958.19144 116.841
963.42914 8.86516
967.65261 300.668
968.11432 9.60877
968.15391 230.014
968.65524 115.557
969.15790 17.1633
970.63013 279.24
971.12990 263.969
971.63302 33.4717
972.13116 16.7185
973.14386 10.5937
976.20721 9.45816
978.13439 104.885
979.12023 239.665
979.63531 36.5011
980.12667 35.3461
980.63666 16.5949
981.13104 15.9407
989.67468 9.07618
996.09485 9.47203
997.04657 9.671
997.13407 30.1345
998.63300 22.7733
999.70288 9.52474
1002.14735 398.478
1003.14821 59.981
1007.63559 733.956
1008.13745 372.586
1008.63775 114.938
1009.13892 16.7584
1014.59198 9.49125
1018.14136 62.0552
1019.14410 14.7831
1020.15173 18.0632
1025.16589 9.11975
1027.64557 423.988
1028.14694 296.65
1028.64796 127.894
1029.14685 14.8817
1036.14880 38.7715
1040.01367 14.465
1043.08887 19.1759
1053.14531 1539.32
1054.14773 632.286
1055.15075 107.472
1055.64551 16.6672
1056.15241 41.4817
1058.09851 15.782
1059.08731 199.828
1059.88696 9.72756
1060.09143 9.61512
1064.06067 9.38743
1064.65122 162.838
1065.15359 121.194
1065.65434 38.8604
1066.65735 14.708
1067.62867 59.9892
1068.13000 24.8708
1068.63123 34.0912
1068.74023 9.81142
1069.14636 9.57145
1075.62781 18.4107
1077.41003 9.21484
1079.62488 9.92659
1082.11305 142.277
1087.15076 9.75864
1087.63342 15.1524
1093.15107 41.968
1094.15381 16.1095
1100.12866 13.6868
1104.63904 19.4775
1111.16202 91.166
1114.71326 9.41996
1116.17779 86.9061
1117.18018 19.8055
1132.18140 17.4999
1133.11128 154.558
1134.10852 21.4084
1140.17549 863.61
1140.67721 813.152
1141.17829 388.03
1141.68007 101.952
1141.93420 9.27326
1142.18054 17.2309
1143.15294 466.191
1143.65429 408.978
1144.15642 176.764
1144.65356 14.7446
1145.16370 13.9958
1146.55249 9.38067
1153.15918 15.2695
1160.38464 9.35595
1166.74805 11.0292
1167.32776 9.88583
1167.53516 9.84428
1171.40125 9.33266
1173.11768 142.208
1174.12244 20.7457
1174.29358 10.0512
1175.00378 9.52095
1176.75476 9.4669
1180.14502 33.8299
1180.15771 15.3837
1180.65918 20.2696
1188.45813 9.35136
1191.12705 266.989
1192.13205 40.2145
1196.14280 83.6578
1200.16933 137.441
1200.66984 80.6413
1201.17224 104.024
1204.19397 17.3925
1214.24634 9.56144
1217.17258 75.0286
1217.67261 17.1875
1232.15233 47.953
1236.80017 12.9117
1238.44958 10.3727
1240.15710 18.2694
1241.15506 32.1896
1254.30371 10.2278
1258.16077 19.8447
1262.20986 1700.75
1263.21164 908.208
1264.21525 124.324
1284.15840 1778.37
1284.76587 11.7274
1284.90344 9.80278
1285.16115 854.018
1286.16556 237.336
1287.16809 17.1666
1287.74915 9.53636
1288.17090 18.9851
1290.17078 20.2792
1292.69463 184.857
1293.19661 180.352
1293.69563 60.291
1295.85144 10.0968
1298.16309 18.7623
1299.67151 17.1202
1302.16906 54.3163
1307.67847 357.229
1308.17771 490.48
1308.67903 134.212
1309.17800 106.496
1309.56689 9.94019
1312.05774 10.33
1316.68457 19.7701
1317.18430 78.3092
1324.16580 169.677
1325.17328 39.1258
1326.17358 19.6427
1331.19568 16.6842
1333.18006 64.2238
1333.20532 10.1427
1333.67868 34.2526
1338.63525 11.3286
1342.17564 1272.51
1343.17870 623.063
1344.18083 136.355
1345.18542 13.2963
1345.80737 9.65412
1346.14966 15.4389
1347.19070 37.8037
1349.20190 16.5167
1353.98645 9.75278
1364.68679 29.6639
1365.19575 87.1755
1365.69768 30.9452
1367.12573 11.0134
1369.23071 10.3745
1373.18542 16.2491
1378.84229 14.495
1382.19514 45.1855
1388.14001 16.1237
1389.14136 17.396
1394.10876 9.79191
1397.17829 53.784
1397.68201 14.6951
1398.18925 478.053
1399.18982 245.978
1405.17712 13.4095
1407.13062 13.9807
1407.61853 10.1961
1409.91138 10.8843
1413.17090 17.804
1429.14832 9.54172
1445.15576 16.1431
1445.23572 17.4133
1453.02576 10.0488
1453.69385 18.6102
1454.19861 18.2271
1456.20835 194.643
1457.21637 289.659
1457.72580 125.681
1458.21979 208.593
1461.69614 42.2878
1462.17371 18.3089
1462.69849 18.3273
1463.16272 15.5036
1463.69958 19.6713
1472.20401 490.626
1472.70644 396.575
1473.20624 400.797
1473.70945 78.1952
1474.86096 10.4791
1479.15906 10.8793
1480.15906 10.8166
1481.20458 115.157
1481.71277 20.7374
1482.72620 9.8878
1484.13562 9.99511
1484.56116 10.2105
1486.15405 10.2678
1497.20068 16.9129
1498.20715 18.6978
1498.70313 17.6157
1502.18835 14.1829
1526.54382 12.2568
1529.21932 289.676
1529.71912 269.569
1530.22270 164.126
1530.72791 20.8385
1531.21851 19.9737
1545.19031 13.9148
1545.65710 9.90399
1546.22205 45.0023
1547.55737 10.2039
1549.11511 10.4486
1551.68884 21.3254
1553.67554 14.2069
1554.21680 24.1721
1554.52600 10.063
1558.51917 19.532
1559.19714 20.1358
1568.19958 10.4169
1568.49182 10.005
1569.20225 53.1974
1569.69869 101.954
1570.70056 18.0413
1574.89136 10.465
1577.69620 42.2362
1578.20410 44.2121
1578.70056 22.3377
1579.20178 19.9791
1584.86121 15.7279
1586.93774 23.7089
1588.69373 19.3553
1595.43018 16.2727
1595.86755 18.8998
1597.19507 21.1291
1597.90100 10.3586
1598.20081 19.7828
1599.92822 10.2682
1601.95325 23.496
1602.77820 10.1619
1605.95850 20.3527
1606.70605 15.537
1607.25606 1279.37
1607.68579 16.3432
1608.25799 740.812
1608.88025 20.0095
1609.25797 235.354
1609.54810 20.8238
1610.45945 61.8446
1611.44458 17.41
1612.44495 21.9429
1613.20963 1322.36
1614.21105 765.569
1614.71484 23.147
1614.87256 18.2946
1615.21244 268.095
1615.94189 42.1368
1616.20010 150.55
1616.44856 40.2324
1616.69087 47.4426
1616.95836 31.4515
1617.21277 19.9569
1617.44312 24.333
1620.19653 22.3006
1620.44385 21.9908
1621.74243 13.4564
1621.88965 35.4602
1622.21167 79.1081
1622.24027 160.357
1622.74780 91.5569
1623.23926 21.5047
1625.70017 67.0704
1626.21582 18.4933
1626.71228 25.8783
1627.54224 16.5195
1629.19836 18.3824
1630.21155 17.6832
1631.22021 57.9132
1632.22026 66.4237
1632.96313 17.9451
1634.21656 128.051
1634.45471 21.3369
1634.55139 51.7078
1634.72095 14.6578
1634.88770 21.5376
1635.21406 116.773
1635.89050 20.0607
1636.22610 42.0637
1639.97249 67.607
1640.22510 20.6463
1640.46777 23.0527
1640.56006 18.1668
1640.71046 40.1111
1641.21251 89.7519
1642.19943 58.2233
1643.86316 16.0347
1643.97713 47.4775
1644.22070 43.5348
1644.46443 65.0629
1644.72645 489.343
1644.96858 151.562
1645.22901 702.296
1645.46231 39.9712
1645.70386 14.3862
1645.72225 372.265
1645.76038 10.6607
1645.96090 69.5473
1646.22497 221.73
1646.73247 42.949
1646.88391 21.8537
1647.22339 18.0771
1647.55237 46.6764
1647.89148 21.956
1648.22702 102.789
1648.48474 39.1072
1648.53210 16.4617
1648.72162 232.779
1648.96133 228.332
1649.21078 511.725
1649.45920 253.32
1649.70922 523.339
1649.95667 514.56
1650.20775 378.192
1650.45590 159.834
1650.71354 192.161
1650.97095 74.9793
1651.21576 126.678
1652.46790 15.3635
1652.95246 75.7098
1653.21127 483.854
1653.45957 309.624
1653.71068 666.193
1653.95756 387.668
1654.21299 774.498
1654.45327 316.547
1654.71475 234.545
1654.96145 146.923
1655.21527 218.525
1655.46316 80.6014
1655.70508 22.3087
1655.72241 39.0306
1656.97253 24.3509
1657.19834 58.3434
1657.45873 47.8561
1657.96216 40.2313
1658.21540 55.3817
1658.45654 17.0091
1658.61877 23.4839
1658.70928 125.823
1658.96533 104.203
1659.21827 236.234
1659.46270 75.0113
1659.55869 146.207
1659.70938 90.2518
1659.89014 16.8492
1660.21795 214.483
1660.54395 11.5563
1660.89136 24.7778
1661.69690 31.537
1662.71326 39.6372
1662.95891 69.3307
1663.21383 88.6432
1663.46592 139.431
1663.71207 112.278
1663.96362 12.812
1664.19995 24.6556
1664.21912 49.0823
1664.45239 31.4415
1664.70813 22.494
1667.20068 14.0468
1667.21790 15.9385
1667.46069 23.102
1667.89673 12.8241
1667.96790 19.2598
1668.21672 59.8387
1668.48035 41.8983
1668.72898 47.5252
1672.22886 154.099
1672.56379 129.126
1672.89743 72.5986
1673.22646 216.954
1673.71619 36.3701
1673.90833 20.1096
1674.21460 20.7946
1674.71765 16.6262
1676.71326 40.1112
1676.73254 23.9677
1677.22129 32.8774
1677.23938 20.7633
1677.48421 46.6214
1677.72160 71.1445
1677.97252 42.4384
1678.23158 74.2382
1678.46741 261.719
1678.51196 11.1189
1678.71483 324.073
1678.97045 186.705
1679.21640 195.813
1679.46813 52.078
1680.52271 11.0125
1680.97583 15.6115
1681.73203 136.36
1681.99051 285.686
1682.23378 653.436
1682.48272 850.934
1682.72581 967.437
1682.97273 1324.18
1683.22129 1657.53
1683.34692 18.5238
1683.46957 1426.89
1683.68274 33.1033
1683.71907 1051.75
1683.97152 667.098
1684.22202 380.802
1684.47441 74.2179
1684.72400 16.8797
1685.73312 38.754
1685.99355 36.2859
1686.23135 267.818
1686.25220 74.1273
1686.47608 449.819
1686.71970 1039.72
1686.96896 2097.8
1687.21877 2952.33
1687.23755 50.948
1687.46905 2823.12
1687.71951 2908.56
1687.96936 2174.82
1688.22166 1895.92
1688.47206 987.012
1688.71939 485.349
1688.97108 446.877
1689.22463 164.513
1689.71204 39.5765
1690.71578 616.926
1690.96871 1066.38
1691.21778 1543.29
1691.46908 1688.2
1691.57755 45.9223
1691.71946 1574.06
1691.97224 1335.09
1692.22090 1051.03
1692.47231 526.696
1692.72242 551.474
1692.97334 451.713
1693.22101 568.73
1693.46966 349.621
1693.72513 228.698
1693.97273 50.7644
1694.22461 22.5117
1694.26221 14.5388
1694.71118 19.9399
1694.96827 119.461
1695.21286 135.872
1695.46172 145.305
1695.71738 104.021
1695.97147 88.9616
1696.23357 84.0422
1696.47338 174.754
1696.72046 170.823
1696.97489 222.778
1697.22777 600.389
1697.46981 258.723
1697.57104 225.882
1697.72522 319.521
1697.89954 10.9721
1697.97122 178.081
1698.22986 220.48
1698.47302 23.4667
1698.57214 51.6436
1698.88436 78.6943
1699.09998 11.0132
1699.22413 359.373
1699.55716 264.774
1699.86462 10.6916
1699.88613 228.438
1700.22981 194.576
1700.47424 20.4729
1700.72153 154.747
1700.97231 108.168
1701.22111 192.406
1701.44019 15.4658
1701.48071 34.9103
1701.73444 308.053
1701.97281 114.999
1702.24158 256.708
1702.46790 34.7934
1702.57048 73.403
1702.66333 10.5935
1702.73975 168.838
1702.90918 14.9987
1703.24196 127.318
1704.22917 106.379
1704.46033 12.3635
1704.89093 93.7603
1705.22376 197.847
1705.56201 26.8977
1705.88171 39.6563
1706.21167 20.7055
1706.55689 98.233
1706.71362 18.8559
1707.22339 23.9997
1707.46863 19.3118
1707.73023 63.7896
1709.74133 22.027
1709.98753 47.3204
1710.02063 40.1762
1710.23641 68.5037
1710.49194 20.1964
1710.55613 23.9174
1710.72510 21.0064
1710.74475 19.8692
1710.89148 11.4507
1711.22778 57.1382
1711.24512 25.8801
1711.52820 10.9023
1711.98682 24.7383
1712.22003 183.522
1712.73205 77.633
1712.88757 15.1355
1713.21851 17.4994
1714.22546 45.9674
1714.49292 57.9642
1714.72888 20.0871
1715.24028 40.7881
1715.49292 63.9093
1715.74572 132.335
1715.98415 431.925
1716.20923 14.8812
1716.23172 962.96
1716.47696 1408.49
1716.73069 1664.91
1716.98096 1237.16
1717.22959 900.478
1717.47833 609.99
1717.73373 133.328
1717.84290 10.7538
1717.98047 20.8277
1718.22607 137.415
1718.37695 10.8583
1718.47839 11.7798
1718.89136 38.1226
1719.49890 74.8555
1719.56128 11.2644
1719.75288 531.655
1719.99339 1434.58
1720.23812 1952.79
1720.25696 14.1445
1720.48308 4103.81
1720.73246 7945.68
1720.86377 11.6839
1720.98226 9128.68
1721.23219 8847.91
1721.48280 6992.5
1721.73318 4448.36
1721.98385 2669.61
1722.23388 1180.15
1722.48578 666.692
1722.73602 224.74
1722.98425 43.742
1723.23608 99.7923
1723.56151 62.585
1723.89192 35.134
1724.22786 457.121
1724.47926 2686.01
1724.73059 7496.99
1724.98102 10839.6
1725.09180 11.8115
1725.23094 10259.3
1725.48148 9032.54
1725.73208 6939.58
1725.98317 4376.61
1726.23311 2728.58
1726.48279 1661.22
1726.73567 956.949
1726.98590 439.326
1727.23711 452.097
1727.47888 22.4892
1727.73674 40.0004
1728.21216 11.1804
1728.24351 170.403
1728.48089 530.637
1728.72870 1659.7
1728.98034 2238.88
1729.23032 2541.19
1729.48005 2165.48
1729.73018 1438.02
1729.98314 960.362
1730.23363 754.734
1730.26672 14.6156
1730.48062 575.842
1730.73604 780.706
1730.98443 1018.49
1731.23236 894.836
1731.48412 684.597
1731.73399 315.497
1731.98350 205.595
1732.23206 202.873
1732.49207 22.3719
1733.59338 10.8642
1734.19861 17.5994
1734.24243 22.1167
1734.48945 41.4283
1734.73113 325.32
1734.88477 16.9803
1734.98529 480.872
1735.23274 635.961
1735.43835 10.2444
1735.48148 474.792
1735.73089 288.035
1735.98682 90.3308
1736.23584 54.3113
1736.49036 29.7731
1737.22703 61.4186
1737.56309 32.8695
1738.23083 44.5979
1738.73047 61.2431
1739.22423 153.219
1739.72279 102.219
1739.97595 13.4219
1740.22313 86.2214
1740.72974 24.0618
1741.58179 19.6391
1741.72649 61.3587
1741.96387 12.3409
1742.23125 194.236
1742.56128 21.7532
1742.72607 48.9427
1743.23132 22.2885
1743.56734 85.1619
1743.99316 18.7414
1744.22857 56.0461
1745.22278 20.6401
1747.24382 97.4865
1747.58697 298.987
1747.73943 58.7147
1747.91909 378.23
1748.25146 273.573
1748.48389 16.1087
1748.59299 78.0017
1748.92383 24.9173
1749.23900 374.034
1749.47876 47.6925
1749.57832 320.408
1749.73971 378.547
1749.89765 351.775
1749.99749 323.657
1750.23778 979.98
1750.48889 130.177
1750.57457 186.924
1750.71826 21.9729
1750.73870 84.9752
1750.91077 16.5702
1751.20422 10.0181
1751.23850 199.623
1751.99500 16.261
1753.23157 38.9191
1753.48853 42.9667
1753.74126 1158.05
1753.99148 2844.56
1754.24133 4291.03
1754.49174 4498.85
1754.74238 3968.78
1754.99378 2437.89
1755.11731 16.1599
1755.24325 1898.9
1755.48987 892.68
1755.57563 183.844
1755.74052 341.157
1755.90846 158.845
1756.00162 70.9086
1756.24228 500.342
1756.57279 187.002
1756.74072 13.3577
1756.90466 268.92
1757.23496 230.407
1757.56992 88.6674
1757.73827 391.836
1757.89832 25.2237
1757.99391 1551.95
1758.24279 8554.8
1758.49318 21124
1758.74401 27807.8
1758.99422 29314.4
1759.24421 25195
1759.49485 15669.5
1759.74539 9822.46
1759.99610 5792.28
1760.24630 2488.69
1760.49582 1148.18
1760.74475 223.197
1760.99811 235.082
1761.24259 64.0204
1761.49533 48.3257
1761.73853 30.5104
1762.00989 21.3148
1762.24231 3731.74
1762.49111 9937.23
1762.74230 13636.6
1762.89990 29.9848
1762.99270 15431.3
1763.24315 13573
1763.49277 9160.97
1763.57235 88.1718
1763.74445 5043.41
1763.88293 67.7141
1763.99422 3091.46
1764.24097 1709.01
1764.49079 517.729
1764.56067 13.2356
1764.57910 22.8306
1764.74442 288.106
1764.88135 21.4618
1764.99674 136.781
1765.23836 302.817
1765.49280 63.6516
1765.74053 28.8312
1765.99390 20.9931
1767.25122 20.6058
1768.24473 310.009
1768.49459 749.91
1768.74526 1162.02
1768.76465 15.7945
1768.99749 1157.96
1769.24524 1138.8
1769.49057 584.463
1769.55652 14.5236
1769.74622 206.378
1769.95996 10.5625
1769.99512 100.878
1770.24292 24.123
1771.22205 23.7084
1771.75293 16.2111
1772.98926 31.0225
1773.24841 14.7299
1773.90622 85.8297
1774.24667 135.156
1774.57751 101.979
1774.75513 43.2946
1774.90816 105.081
1775.25671 304.032
1775.57488 50.4904
1775.76357 99.3199
1775.90295 44.172
1776.24891 77.7182
1777.21985 17.5336
1777.55017 44.6104
1778.25830 20.5171
1781.90845 22.9978
1783.56325 31.4271
1785.25720 82.4505
1786.26098 137.756
1786.49878 19.8272
1786.99957 56.275
1787.25316 278.578
1787.50110 178.876
1787.59032 50.9375
